*	Measurement	data	measured	by	REW	V5.20	Beta	4												
*	Source:	Microphone	(E.A.R.S	Gain:	18dB	),	no	input	selected,	L,	volume:	no	control							
*	Format:	256k	Log	Swept	Sine,	1	sweep	at	-8	dBFS	With	no	timing	reference						
*	Dated:	Jan	28,	2019	11.32.59	AM														
*	REW	Settings:																		
*	C-weighting	compensation:	Off																	
*	Target	level:	75	dB																
*	Note:	Really	big	difference	between	R	&	L.	We	had	to	adjust	fit	several	times	to	get	a	good	measurement
*	Measurement:	Bose	QC	35	II	L														
*	Smoothing:	Jan/48	octave																	
*	Frequency	Step:	Jan/96	octave																
*	Start	Frequency:	20,1	Hz																
*																				
*	Freq(Hz)	SPL(dB)	Phase(degrees)																	
20,145	86,237	-159,376																		
20,291	86,311	-159,718																		
20,438	86,385	-160,28																		
20,586	86,492	-161,155																		
20,735	86,661	-162,378																		
20,885	86,83	-163,601																		
21,037	86,979	-164,689																		
21,189	87,121	-165,733																		
21,343	87,258	-166,731																		
21,497	87,389	-167,683																		
21,653	87,52	-168,643																		
21,81	87,653	-169,619																		
21,968	87,784	-170,591																		
22,127	87,914	-171,552																		
22,288	88,042	-172,506																		
22,449	88,168	-173,448																		
22,612	88,293	-174,38																		
22,776	88,418	-175,309																		
22,941	88,541	-176,235																		
23,107	88,664	-177,157																		
23,274	88,786	-178,073																		
23,443	88,907	-178,987																		
23,613	89,027	-179,899																		
23,784	89,147	179,19																		
23,956	89,266	178,279																		
24,13	89,383	177,366																		
24,305	89,5	176,452																		
24,481	89,616	175,536																		
24,658	89,73	174,617																		
24,837	89,844	173,696																		
25,017	89,955	172,772																		
25,198	90,065	171,846																		
25,381	90,174	170,918																		
25,565	90,281	169,988																		
25,75	90,386	169,057																		
25,937	90,489	168,126																		
26,125	90,59	167,195																		
26,314	90,69	166,265																		
26,505	90,788	165,336																		
26,697	90,884	164,41																		
26,89	90,979	163,486																		
27,085	91,072	162,565																		
27,281	91,163	161,646																		
27,479	91,253	160,731																		
27,678	91,342	159,819																		
27,879	91,43	158,91																		
28,081	91,517	158,003																		
28,284	91,602	157,099																		
28,489	91,687	156,197																		
28,696	91,771	155,296																		
28,904	91,853	154,396																		
29,113	91,935	153,496																		
29,324	92,016	152,596																		
29,537	92,095	151,695																		
29,751	92,174	150,794																		
29,966	92,251	149,892																		
30,183	92,327	148,99																		
30,402	92,402	148,088																		
30,622	92,475	147,185																		
30,844	92,547	146,284																		
31,068	92,618	145,383																		
31,293	92,687	144,485																		
31,52	92,754	143,59																		
31,748	92,82	142,698																		
31,978	92,885	141,809																		
32,21	92,948	140,926																		
32,443	93,01	140,048																		
32,678	93,071	139,175																		
32,915	93,131	138,308																		
33,154	93,19	137,446																		
33,394	93,248	136,59																		
33,636	93,306	135,737																		
33,88	93,363	134,888																		
34,125	93,42	134,04																		
34,372	93,476	133,193																		
34,621	93,531	132,345																		
34,872	93,585	131,495																		
35,125	93,638	130,643																		
35,38	93,688	129,791																		
35,636	93,737	128,939																		
35,894	93,783	128,091																		
36,154	93,826	127,249																		
36,416	93,867	126,417																		
36,68	93,905	125,599																		
36,946	93,941	124,797																		
37,214	93,975	124,014																		
37,483	94,008	123,251																		
37,755	94,041	122,509																		
38,029	94,073	121,787																		
38,304	94,106	121,082																		
38,582	94,139	120,392																		
38,861	94,174	119,715																		
39,143	94,209	119,048																		
39,427	94,246	118,388																		
39,712	94,283	117,733																		
40	94,321	117,081																		
40,29	94,36	116,432																		
40,582	94,4	115,784																		
40,876	94,44	115,135																		
41,172	94,48	114,483																		
41,47	94,521	113,827																		
41,771	94,562	113,165																		
42,074	94,602	112,495																		
42,379	94,641	111,817																		
42,686	94,68	111,129																		
42,995	94,716	110,433																		
43,306	94,75	109,729																		
43,62	94,782	109,019																		
43,936	94,811	108,306																		
44,255	94,836	107,59																		
44,575	94,858	106,876																		
44,898	94,877	106,166																		
45,224	94,892	105,461																		
45,552	94,904	104,764																		
45,882	94,911	104,077																		
46,214	94,915	103,402																		
46,549	94,914	102,742																		
46,886	94,909	102,101																		
47,226	94,899	101,484																		
47,568	94,884	100,901																		
47,913	94,864	100,362																		
48,26	94,841	99,877																		
48,61	94,815	99,456																		
48,962	94,79	99,105																		
49,317	94,768	98,824																		
49,674	94,751	98,606																		
50,034	94,742	98,441																		
50,397	94,743	98,309																		
50,762	94,753	98,193																		
51,13	94,772	98,077																		
51,5	94,798	97,946																		
51,874	94,83	97,795																		
52,249	94,866	97,622																		
52,628	94,904	97,428																		
53,009	94,944	97,217																		
53,394	94,986	96,993																		
53,781	95,029	96,759																		
54,17	95,073	96,513																		
54,563	95,118	96,255																		
54,958	95,164	95,98																		
55,356	95,21	95,688																		
55,758	95,256	95,379																		
56,162	95,299	95,058																		
56,569	95,34	94,73																		
56,978	95,379	94,404																		
57,391	95,415	94,086																		
57,807	95,449	93,784																		
58,226	95,484	93,5																		
58,648	95,519	93,234																		
59,073	95,555	92,983																		
59,501	95,594	92,743																		
59,932	95,635	92,509																		
60,367	95,678	92,277																		
60,804	95,724	92,042																		
61,245	95,772	91,803																		
61,688	95,821	91,559																		
62,135	95,872	91,307																		
62,586	95,924	91,048																		
63,039	95,976	90,781																		
63,496	96,03	90,503																		
63,956	96,084	90,217																		
64,42	96,138	89,921																		
64,886	96,192	89,618																		
65,357	96,246	89,308																		
65,83	96,299	88,993																		
66,307	96,352	88,677																		
66,788	96,405	88,358																		
67,272	96,458	88,038																		
67,759	96,511	87,715																		
68,25	96,565	87,387																		
68,745	96,619	87,053																		
69,243	96,673	86,712																		
69,745	96,726	86,363																		
70,25	96,779	86,008																		
70,759	96,831	85,65																		
71,272	96,882	85,292																		
71,788	96,933	84,934																		
72,309	96,983	84,576																		
72,833	97,035	84,217																		
73,36	97,086	83,853																		
73,892	97,139	83,479																		
74,427	97,19	83,094																		
74,967	97,241	82,698																		
75,51	97,29	82,296																		
76,057	97,337	81,891																		
76,608	97,382	81,489																		
77,163	97,426	81,095																		
77,723	97,471	80,706																		
78,286	97,516	80,319																		
78,853	97,562	79,931																		
79,424	97,608	79,536																		
80	97,654	79,133																		
80,58	97,7	78,72																		
81,164	97,745	78,298																		
81,752	97,789	77,868																		
82,344	97,831	77,431																		
82,941	97,871	76,99																		
83,542	97,91	76,546																		
84,147	97,947	76,104																		
84,757	97,982	75,666																		
85,371	98,016	75,23																		
85,99	98,05	74,796																		
86,613	98,083	74,359																		
87,241	98,115	73,918																		
87,873	98,145	73,474																		
88,51	98,174	73,032																		
89,151	98,201	72,595																		
89,797	98,227	72,161																		
90,448	98,254	71,725																		
91,103	98,281	71,273																		
91,763	98,306	70,797																		
92,428	98,325	70,301																		
93,098	98,338	69,799																		
93,773	98,344	69,314																		
94,452	98,346	68,856																		
95,137	98,344	68,428																		
95,826	98,341	68,026																		
96,52	98,336	67,651																		
97,22	98,331	67,302																		
97,924	98,326	66,976																		
98,634	98,322	66,66																		
99,349	98,317	66,346																		
100,069	98,309	66,041																		
100,794	98,298	65,769																		
101,524	98,285	65,548																		
102,26	98,276	65,377																		
103,001	98,275	65,231																		
103,747	98,281	65,073																		
104,499	98,291	64,88																		
105,256	98,302	64,644																		
106,019	98,307	64,365																		
106,787	98,303	64,056																		
107,561	98,284	63,757																		
108,34	98,249	63,541																		
109,126	98,206	63,486																		
109,916	98,172	63,612																		
110,713	98,161	63,863																		
111,515	98,18	64,125																		
112,323	98,222	64,3																		
113,137	98,272	64,348																		
113,957	98,321	64,288																		
114,783	98,363	64,165																		
115,614	98,397	64,023																		
116,452	98,426	63,885																		
117,296	98,454	63,754																		
118,146	98,481	63,618																		
119,002	98,506	63,468																		
119,865	98,527	63,314																		
120,733	98,542	63,18																		
121,608	98,555	63,086																		
122,489	98,571	63,031																		
123,377	98,591	62,991																		
124,271	98,616	62,938																		
125,171	98,641	62,865																		
126,078	98,663	62,784																		
126,992	98,683	62,719																		
127,912	98,703	62,69																		
128,839	98,728	62,692																		
129,773	98,763	62,683																		
130,713	98,802	62,612																		
131,66	98,836	62,463																		
132,615	98,853	62,303																		
133,575	98,857	62,238																		
134,543	98,866	62,323																		
135,518	98,895	62,489																		
136,5	98,947	62,604																		
137,49	99,005	62,59																		
138,486	99,056	62,487																		
139,489	99,094	62,381																		
140,5	99,129	62,319																		
141,518	99,168	62,286																		
142,544	99,211	62,251																		
143,577	99,257	62,196																		
144,617	99,302	62,117																		
145,665	99,345	62,023																		
146,721	99,385	61,929																		
147,784	99,423	61,855																		
148,855	99,462	61,803																		
149,933	99,505	61,759																		
151,02	99,549	61,708																		
152,114	99,594	61,647																		
153,217	99,639	61,579																		
154,327	99,683	61,506																		
155,445	99,726	61,436																		
156,572	99,77	61,368																		
157,706	99,813	61,295																		
158,849	99,854	61,224																		
160	99,896	61,16																		
161,159	99,938	61,102																		
162,327	99,979	61,052																		
163,504	100,022	61,025																		
164,688	100,07	61,008																		
165,882	100,122	60,979																		
167,084	100,177	60,933																		
168,295	100,235	60,878																		
169,514	100,296	60,8																		
170,742	100,357	60,688																		
171,98	100,417	60,552																		
173,226	100,475	60,412																		
174,481	100,534	60,261																		
175,746	100,592	60,088																		
177,019	100,646	59,894																		
178,302	100,694	59,703																		
179,594	100,739	59,54																		
180,895	100,784	59,404																		
182,206	100,83	59,284																		
183,527	100,876	59,181																		
184,856	100,925	59,102																		
186,196	100,978	59,034																		
187,545	101,037	58,951																		
188,904	101,099	58,829																		
190,273	101,159	58,667																		
191,652	101,214	58,475																		
193,041	101,264	58,279																		
194,44	101,312	58,107																		
195,849	101,363	57,937																		
197,268	101,415	57,722																		
198,697	101,455	57,509																		
200,137	101,493	57,381																		
201,587	101,542	57,319																		
203,048	101,603	57,239																		
204,52	101,669	57,099																		
206,002	101,73	56,919																		
207,494	101,785	56,755																		
208,998	101,84	56,642																		
210,512	101,903	56,55																		
212,038	101,972	56,442																		
213,574	102,046	56,323																		
215,122	102,125	56,186																		
216,681	102,211	55,995																		
218,251	102,297	55,735																		
219,833	102,377	55,43																		
221,426	102,454	55,108																		
223,03	102,528	54,783																		
224,646	102,604	54,443																		
226,274	102,681	54,066																		
227,914	102,755	53,645																		
229,565	102,823	53,183																		
231,229	102,884	52,701																		
232,905	102,937	52,23																		
234,592	102,99	51,786																		
236,292	103,045	51,34																		
238,004	103,101	50,861																		
239,729	103,152	50,36																		
241,466	103,2	49,879																		
243,216	103,249	49,416																		
244,979	103,299	48,927																		
246,754	103,342	48,417																		
248,542	103,379	47,938																		
250,343	103,416	47,483																		
252,157	103,454	47,007																		
253,984	103,489	46,504																		
255,825	103,521	45,98																		
257,678	103,546	45,429																		
259,546	103,563	44,879																		
261,426	103,574	44,373																		
263,321	103,589	43,893																		
265,229	103,604	43,381																		
267,151	103,613	42,85																		
269,087	103,615	42,348																		
271,037	103,617	41,878																		
273,001	103,621	41,41																		
274,979	103,623	40,927																		
276,972	103,62	40,442																		
278,979	103,612	39,973																		
281	103,603	39,516																		
283,037	103,592	39,063																		
285,088	103,577	38,618																		
287,153	103,558	38,198																		
289,234	103,538	37,811																		
291,33	103,518	37,454																		
293,441	103,499	37,12																		
295,568	103,478	36,801																		
297,71	103,456	36,508																		
299,867	103,433	36,242																		
302,04	103,409	35,996																		
304,228	103,385	35,769																		
306,433	103,358	35,567																		
308,654	103,33	35,407																		
310,89	103,306	35,288																		
313,143	103,288	35,178																		
315,412	103,272	35,054																		
317,698	103,256	34,928																		
320	103,24	34,822																		
322,319	103,229	34,727																		
324,655	103,221	34,618																		
327,007	103,214	34,492																		
329,377	103,206	34,36																		
331,764	103,196	34,232																		
334,168	103,185	34,118																		
336,589	103,175	34,028																		
339,028	103,167	33,947																		
341,485	103,16	33,865																		
343,959	103,153	33,786																		
346,452	103,147	33,712																		
348,962	103,142	33,633																		
351,491	103,135	33,553																		
354,038	103,126	33,489																		
356,604	103,117	33,448																		
359,188	103,109	33,426																		
361,791	103,104	33,42																		
364,412	103,101	33,416																		
367,053	103,099	33,409																		
369,713	103,096	33,408																		
372,392	103,095	33,416																		
375,09	103,094	33,427																		
377,809	103,094	33,433																		
380,546	103,094	33,436																		
383,304	103,094	33,441																		
386,081	103,093	33,457																		
388,879	103,093	33,489																		
391,697	103,095	33,529																		
394,536	103,098	33,566																		
397,395	103,101	33,605																		
400,274	103,104	33,662																		
403,175	103,111	33,733																		
406,096	103,12	33,805																		
409,039	103,131	33,893																		
412,003	103,147	33,995																		
414,989	103,169	34,063																		
417,996	103,189	34,097																		
421,025	103,207	34,138																		
424,076	103,226	34,193																		
427,149	103,247	34,254																		
430,244	103,267	34,314																		
433,362	103,287	34,378																		
436,502	103,309	34,451																		
439,665	103,332	34,523																		
442,851	103,355	34,588																		
446,06	103,38	34,649																		
449,293	103,404	34,707																		
452,548	103,43	34,763																		
455,828	103,456	34,813																		
459,131	103,482	34,859																		
462,458	103,51	34,904																		
465,809	103,539	34,946																		
469,184	103,568	34,99																		
472,584	103,599	35,039																		
476,009	103,63	35,093																		
479,458	103,663	35,151																		
482,933	103,698	35,211																		
486,432	103,734	35,268																		
489,957	103,772	35,317																		
493,507	103,81	35,361																		
497,084	103,85	35,399																		
500,686	103,89	35,435																		
504,314	103,931	35,472																		
507,968	103,973	35,512																		
511,649	104,017	35,551																		
515,357	104,063	35,586																		
519,091	104,11	35,61																		
522,853	104,157	35,619																		
526,642	104,204	35,623																		
530,458	104,252	35,622																		
534,302	104,3	35,61																		
538,174	104,348	35,599																		
542,074	104,398	35,587																		
546,002	104,449	35,568																		
549,958	104,502	35,545																		
553,943	104,557	35,511																		
557,958	104,614	35,456																		
562,001	104,669	35,399																		
566,073	104,725	35,35																		
570,175	104,783	35,298																		
574,307	104,843	35,231																		
578,469	104,904	35,153																		
582,66	104,964	35,071																		
586,883	105,026	34,977																		
591,135	105,087	34,87																		
595,419	105,148	34,751																		
